<Group>
Detector1
15
151		151		151		151		151		151		151		76		76		76		76		76		76		76		76	
oct27_1350_2vpp_650rpm_288000cyc_1st_80hz_enhanced signal	T637394429605032455	oct27_1720_2vpp_650rpm_432000cyc_1st_80hz_enhanced signal	T637394429605032457	oct27_1800_2vpp_650rpm_432000cyc_1st_80hz_enhanced signal	T637394429605032459	baseline_mixture of detergent+meoh(1:5w/w)_enhanced signal	T637394429605032461	ORIE4_enhanced signal	T637394429605032463	ORIE5_enhanced signal	T637394429605032465	ORIE6_enhanced signal	T637394429605032467	oct27_1350_2vpp_650rpm_288000cyc_1st_80hz_normal signal	T637394429605032469	oct27_1720_2vpp_650rpm_432000cyc_1st_80hz_normal signal	T637394429605032471	oct27_1800_2vpp_650rpm_432000cyc_1st_80hz_normal signal	T637394429605032473	baseline_normal signal_1st	T637394429605032475	baseline_normal signal_2nd	T637394429605032477	ORIE4_normal signal	T637394429605032479	ORIE5_normal signal	T637394429605032481	ORIE6_normal signal	T637394429605032483
X	Y	X	Y	X	Y	X	Y	X	Y	X	Y	X	Y	X	Y	X	Y	X	Y	X	Y	X	Y	X	Y	X	Y	X	Y
550	135489.922	550	294288.438	550	543974.438	550	24491.86	550	270125.031	550	48323.7	550	133642.047	550	1270.09119	550	1978.22107	550	2613.38574	550	657.0244	550	641.0232	550	3606.73486	550	921.0479	550	621.0218
551	75566.72	551	163808.766	551	254702.438	551	9896.531	551	281845.938	551	36302.36	551	32094.127	552	1362.10486	552	2159.26343	552	2670.40283	552	596.0201	552	600.0203	552	4430.109	552	935.0494	552	657.0244
552	66641.29	552	138616.984	552	194773.8	552	5660.81	552	310386.1	552	35083.45	552	12163.3555	554	1427.11511	554	2393.32349	554	2887.471	554	592.0198	554	583.0192	554	5314.5957	554	1049.06213	554	566.0181
553	68635.48	553	143817.313	553	195101.938	553	4938.37744	553	348122.281	553	38505.65	553	9530.13	556	1548.13538	556	2684.407	556	3238.59253	556	560.0177	556	554.017334	556	6537.414	556	1110.06958	556	650.023865
554	71817.625	554	152683.6	554	202032.719	554	4387.0874	554	386659.375	554	41035.9961	554	8266.86	558	1674.15833	558	2965.49683	558	3376.644	558	564.017944	558	596.0201	558	7537.209	558	1313.09741	558	642.0233
555	75493.09	555	161561.844	555	208658.7	555	4108.95361	555	426131	555	44282.61	555	7804.44043	560	1832.1897	560	3133.55469	560	3707.77661	560	586.0194	560	622.021851	560	8800.374	560	1424.11462	560	666.0251
556	80102.44	556	172097.6	556	217843.391	556	3768.80249	556	469875.344	556	48620.3164	556	7956.57568	562	1921.2085	562	3435.66675	562	4009.90845	562	580.019	562	568.01825	562	9474.069	562	1440.11719	562	661.024658
557	84260.875	557	181888.469	557	226672.359	557	3649.75244	557	510535.375	557	51847.5859	557	8128.732	564	2006.22742	564	3692.77026	564	4258.02441	564	564.017944	564	598.0202	564	10377.082	564	1598.14429	564	688.026733
558	88456.62	558	191934.422	558	237102.109	558	3481.68481	558	550745.563	558	56394.31	558	8347.937	566	2065.241	566	3704.77539	566	4391.08936	566	655.024231	566	604.0206	566	10945.7666	566	1592.14319	566	711.028564
559	92750.35	559	202179.031	559	246715.328	559	3311.61963	559	596043.438	559	59942.5547	559	8606.184	568	2119.25366	568	3862.843	568	4357.07227	568	594.019958	568	649.0238	568	11169.0449	568	1539.13379	568	664.0249
560	96842.96	560	212832.938	560	254973.109	560	3200.57861	560	633618.4	560	63083.31	560	8896.471	570	2097.24854	570	3969.89038	570	4446.1167	570	549.017	570	585.019348	570	11259.1592	570	1627.14954	570	658.0245
561	99783.4453	561	221764.578	561	263485.875	561	3103.54419	561	669862.7	561	66957.67	561	8967.542	572	2094.2478	572	3822.82568	572	4398.093	572	632.0226	572	574.0186	572	11075.9287	572	1662.15613	572	690.0269
562	102918.141	562	229861.578	562	270650.875	562	2946.49048	562	705153.563	562	69831.8	562	9150.72949	574	2039.235	574	3795.814	574	4273.03125	574	559.017639	574	553.0173	574	10898.708	574	1595.1438	574	680.0261
563	106835.289	563	238302.938	563	278079.656	563	2853.46	563	738908.25	563	72927.67	563	9387.978	576	1974.22021	576	3672.762	576	4226.009	576	589.0196	576	608.0209	576	10450.168	576	1487.125	576	649.0238
564	108833.492	564	244066.9	564	285120.156	564	2735.42261	564	769051	564	76573.3359	564	9520.119	578	1907.20544	578	3395.65137	578	3893.85645	578	557.0175	578	558.0176	578	9932.572	578	1479.12366	578	651.0239
565	112984.188	565	249478.719	565	290901.281	565	2830.45264	565	790838	565	77865.56	565	9664.275	580	1693.162	580	3188.57446	580	3661.75757	580	574.0186	580	601.0204	580	9411.002	580	1433.11609	580	591.0197
566	114747.734	566	254435.875	566	295008	566	2610.385	566	810201.7	566	79976.3	566	9879.513	582	1710.16528	582	2974.49976	582	3433.666	582	586.0194	582	520.015259	582	8783.357	582	1390.10913	582	642.0233
567	116623.086	567	257603.188	567	298182.625	567	2717.41724	567	827249.1	567	81451.6953	567	9906.543	584	1586.14209	584	2789.4397	584	3200.57861	584	538.016357	584	605.0207	584	7987.60352	584	1262.09	584	622.021851
568	118314.391	568	259816.969	568	300956.969	568	2636.39258	568	838583.2	568	82864.75	568	9919.558	586	1475.12292	586	2546.36621	586	2899.47485	586	539.0164	586	581.019043	586	7268.98438	586	1161.07617	586	646.02356
569	118650.867	569	260890.078	569	302285.5	569	2606.38379	569	845798.2	569	83543.1	569	10018.6689	588	1408.112	588	2411.32837	588	2823.45044	588	549.017	588	551.017151	588	6669.5127	588	1222.08435	588	612.0212
570	118145.148	570	261239.234	570	300000.031	570	2654.398	570	848298.4	570	83709.6641	570	10061.7178	590	1288.09375	590	2184.26953	590	2556.36914	590	582.019165	590	543.016663	590	6191.165	590	1093.0675	590	572.0185
571	117560.406	571	259133.219	571	299521.063	571	2746.426	571	845085.2	571	83200.89	571	10183.8574	592	1384.10828	592	2083.245	592	2441.33667	592	685.0265	592	700.0277	592	5762.876	592	1149.07458	592	685.0265
572	116548.109	572	256663.266	572	295510.469	572	2693.41	572	842753.1	572	83180.7	572	10095.7568	594	1324.099	594	2013.229	594	2193.27173	594	742.0311	594	723.029541	594	5299.58643	594	1165.07666	594	767.033264
573	115392.055	573	252975.609	573	290793.781	573	2811.44653	573	830914.938	573	81965.4141	573	10162.833	596	1261.08984	596	1908.20569	596	1980.22156	596	633.022644	596	692.027039	596	4676.23535	596	1060.06348	596	679.026062
574	112946.711	574	248482.078	574	284366.281	574	2792.44043	574	817699.563	574	81411.33	574	9941.582	598	1071.06482	598	1745.17212	598	1840.19128	598	567.0182	598	591.0197	598	4106.95264	598	977.053955	598	615.021362
575	110086.9	575	243295.969	575	278539.9	575	2683.40674	575	801653.6	575	78818.96	575	9832.46	600	1084.06641	600	1611.14661	600	1685.1604	600	584.0193	600	595.02	600	3739.79	600	859.0417	600	629.022339
576	107544.836	576	237108.266	576	272139.844	576	2709.41479	576	782089	576	77311.73	576	9411.002	602	1011.05774	602	1472.12244	602	1596.14392	602	595.02	602	541.016541	602	3522.701	602	832.0391	602	589.0196
577	104296.18	577	231678.344	577	263732.1	577	2568.37256	577	758932.063	577	75063.45	577	9157.736	604	924.0482	604	1348.10266	604	1490.12549	604	579.0189	604	573.018555	604	3188.57446	604	824.0384	604	655.024231
578	101668.781	578	223693.516	578	255359.078	578	2499.353	578	736533.25	578	72625.19	578	9030.606	606	996.056	606	1327.09949	606	1415.11316	606	518.015137	606	575.0187	606	2948.49121	606	831.039	606	578.01886
579	97732.69	579	215674.922	579	246151.859	579	2471.345	579	710623.063	579	70203.73	579	8649.226	608	930.0489	608	1298.09521	608	1364.1051	608	530.015869	608	567.0182	608	2853.46	608	778.0342	608	577.0188
580	94043.94	580	206278.547	580	236512.531	580	2376.319	580	684245	580	67604.57	580	8589.167	610	852.041	610	1257.08923	610	1337.101	610	598.0202	610	551.017151	610	2680.406	610	768.0333	610	605.0207
581	90911.37	581	199224.781	581	227567.031	581	2210.276	581	656353.438	581	65440.3633	581	8125.72949	612	903.0461	612	1215.08337	612	1347.10254	612	626.022156	612	629.022339	612	2642.39453	612	830.03894	612	609.020935
582	87053.77	582	189615.984	582	217685.547	582	2266.29028	582	629671.5	582	62623.05	582	7915.539	614	849.0407	614	1180.07874	614	1231.08557	614	592.0198	614	599.020264	614	2447.33838	614	797.0359	614	570.0184
583	83556.23	583	183247.219	583	209675.453	583	2307.30078	583	602975.5	583	60161.03	583	7608.26953	616	824.0384	616	1044.06165	616	1284.09314	616	568.01825	616	580.019	616	2313.30225	616	693.027161	616	562.0178
584	80106.47	584	174422.672	584	200534.016	584	2293.297	584	575414.3	584	57588.9766	584	7233.956	618	760.032654	618	1101.06848	618	1141.07361	618	587.0195	618	600.0203	618	2278.29321	618	657.0244	618	531.0159
585	76780.12	585	166098.047	585	192002.891	585	2367.31665	585	548323.75	585	55185.71	585	7321.02734	620	761.0327	620	995.055969	620	1116.07043	620	500.01413	620	566.0181	620	2204.27441	620	713.028748	620	593.0199
586	72575.79	586	158528.469	586	183975.172	586	2322.30469	586	521640.469	586	52570.84	586	7078.83057	622	750.0318	622	1027.05957	622	1123.07129	622	557.0175	622	519.0152	622	2084.24536	622	662.0248	622	537.0163
587	69402.43	587	151244.1	587	175453.859	587	2305.30029	587	496709.5	587	49522.3047	587	6775.59326	624	708.0283	624	970.053162	624	1046.06177	624	563.0179	624	523.015442	624	1996.2251	624	662.0248	624	536.016235
588	66099.24	588	143863.047	588	166242.734	588	2413.329	588	469949.156	588	47544.49	588	6598.45947	626	647.0237	626	888.044556	626	979.054138	626	552.0172	626	565.018066	626	1900.204	626	655.024231	626	551.017151
589	62993.67	589	136492.219	589	158415.469	589	2363.31543	589	446258	589	45103.7461	589	6378.298	628	765.0331	628	892.045	628	1036.06067	628	566.0181	628	529.0158	628	1843.19189	628	641.0232	628	554.017334
590	59939.53	590	129972.8	590	149430.547	590	2349.31177	590	425877.063	590	42920.918	590	6202.173	630	729.03	630	879.04364	630	969.05304	630	550.0171	630	549.017	630	1719.167	630	625.0221	630	542.0166
591	57168.2578	591	123295.93	591	141113.125	591	2316.30322	591	405598.438	591	40531.6758	591	5875.95	632	678.026	632	878.0436	632	902.045959	632	575.0187	632	514.014954	632	1606.14575	632	650.023865	632	585.019348
592	53913.8945	592	116462.992	592	135472.672	592	2338.30884	592	385945.9	592	38815	592	5748.8667	634	703.027954	634	859.0417	634	831.039	634	560.0177	634	506.014465	634	1463.121	634	601.0204	634	538.016357
593	51277.2734	593	111073.148	593	128108.813	593	2316.30322	593	367967.156	593	36996.2266	593	5478.696	636	649.0238	636	804.0365	636	850.040833	636	509.014648	636	581.019043	636	1443.11768	636	627.0222	636	599.020264
594	48928.0078	594	105557.047	594	121793.266	594	2143.25952	594	350591.875	594	34754.1563	594	5283.577	638	634.0227	638	799.0361	638	828.038757	638	519.0152	638	523.015442	638	1421.11414	638	637.022949	638	512.014832
595	46325.04	595	100051.453	595	116372.813	595	2065.241	595	331750.3	595	32988.41	595	4834.32031	640	667.025146	640	758.0325	640	800.036133	640	513.0149	640	549.017	640	1215.08337	640	634.0227	640	551.017151
596	43546.97	596	94482.5859	596	109823.648	596	1905.20508	596	314516.375	596	31117.6445	596	4616.20361	642	624.022	642	739.0309	642	763.0329	642	533.016052	642	563.0179	642	1210.08276	642	622.021851	642	519.0152
597	41434.85	597	89812.2	597	104613.914	597	1768.17664	597	298955.25	597	29794.0977	597	4524.15625	644	570.0184	644	697.027466	644	749.0317	644	524.0155	644	555.0174	644	1152.075	644	636.0228	644	549.017
598	38972.69	598	85211.94	598	99308.13	598	1648.15344	598	284798.969	598	28178.8164	598	4147.972	646	623.0219	646	712.0286	646	728.029968	646	593.0199	646	570.0184	646	1130.07214	646	610.021	646	550.0171
599	36958.0664	599	81035.9	599	94453.27	599	1530.13232	599	270128.125	599	26155.6152	599	3890.85522	648	595.02	648	677.0259	648	716.029	648	560.0177	648	531.0159	648	1027.05957	648	512.014832	648	543.016663
600	34886.6758	600	76886.03	600	90087.99	600	1511.129	600	258193.141	600	25400.418	600	3747.79346	650	592.0198	650	628.0223	650	665.024963	650	522.0154	650	559.017639	650	954.051453	650	633.022644	650	555.0174
601	33695.0664	601	73438.875	601	85675.39	601	1497.12659	601	244746.4	601	24166.9688	601	3632.74561	652	620.0217	652	652.024048	652	692.027039	652	576.018738	652	539.0164	652	968.0529	652	580.019	652	566.0181
602	32154.3457	602	70404.31	602	81740.34	602	1498.12683	602	234953.563	602	23156.27	602	3402.654	654	576.018738	654	684.0264	654	650.023865	654	482.013123	654	541.016541	654	910.0468	654	598.0202	654	513.0149
603	31254.125	603	66888.15	603	78934.99	603	1437.1167	603	224197.109	603	22416.3672	603	3398.65259	656	564.017944	656	652.024048	656	659.024536	656	543.016663	656	545.0168	656	821.0381	656	548.016968	656	526.0156
604	29798.1113	604	64565.9648	604	75835	604	1436.11658	604	215275.3	604	20954.79	604	3301.61572	658	593.0199	658	585.019348	658	656.0243	658	524.0155	658	553.0173	658	767.033264	658	552.0172	658	530.015869
605	29055.6465	605	62039.957	605	72706.86	605	1401.111	605	205454.609	605	20663.1055	605	3177.57031	660	578.01886	660	626.022156	660	609.020935	660	504.014343	660	556.017456	660	844.0402	660	521.0153	660	506.014465
606	27704.32	606	60073.4375	606	69613.08	606	1442.11755	606	198848.4	606	19913.3887	606	3157.56323	662	539.0164	662	555.0174	662	606.020752	662	543.016663	662	540.0165	662	787.035	662	510.0147	662	523.015442
607	26450.49	607	57421.8945	607	67412.11	607	1406.11169	607	190791.984	607	19113.627	607	3027.51782	664	543.016663	664	576.018738	664	645.0235	664	542.0166	664	516.015	664	775.033936	664	573.018555	664	548.016968
608	25647.1289	608	55857.9141	608	65600.55	608	1330.1	608	183788.328	608	18574.48	608	2874.4668	666	530.015869	666	600.0203	666	569.0183	666	545.0168	666	510.0147	666	741.031	666	547.0169	666	521.0153
609	25059.4473	609	53593.957	609	62629.0938	609	1313.09741	609	178057.344	609	18043.3828	609	2875.467	668	550.0171	668	594.019958	668	579.0189	668	540.0165	668	498.014	668	657.0244	668	590.019653	668	531.0159
610	24050.6523	610	52358.5859	610	61068.2227	610	1450.11877	610	172564.609	610	17618.5273	610	2993.50635	670	514.014954	670	616.0214	670	560.0177	670	541.016541	670	551.017151	670	682.0263	670	520.015259	670	526.0156
611	23307.666	611	50296.66	611	58985.14	611	1434.11621	611	166921.391	611	17103.5176	611	2871.46582	672	541.016541	672	600.0203	672	572.0185	672	504.014343	672	494.0138	672	664.0249	672	511.01474	672	536.016235
612	22694.0742	612	49336.27	612	57381.6328	612	1402.11108	612	161888.766	612	16687.7246	612	2837.45483	674	538.016357	674	552.0172	674	528.015747	674	551.017151	674	501.0142	674	681.0262	674	558.0176	674	517.0151
613	22232.9043	613	47496.23	613	56162.84	613	1449.11865	613	157031.016	613	16129.69	613	2848.4585	676	516.015	676	600.0203	676	588.019531	676	595.02	676	488.013458	676	620.0217	676	536.016235	676	548.016968
614	21516.1348	614	46285.832	614	54248.9375	614	1437.1167	614	152184.078	614	15696.9131	614	2694.41016	678	531.0159	678	543.016663	678	516.015	678	552.0172	678	555.0174	678	606.020752	678	523.015442	678	464.012177
615	20867.584	615	44640.4023	615	52275.0938	615	1347.10254	615	148680.016	615	15406.4033	615	2600.382	680	510.0147	680	518.015137	680	584.0193	680	515.015	680	500.01413	680	615.021362	680	551.017151	680	562.0178
616	20240.1289	616	43548.9766	616	50631.5664	616	1267.0907	616	144049.047	616	14837.4316	616	2407.32739	682	529.0158	682	549.017	682	563.0179	682	517.0151	682	554.017334	682	626.022156	682	541.016541	682	572.0185
617	19545.5684	617	42442.6133	617	49243.7539	617	1286.09351	617	139435.75	617	14399.709	617	2439.33618	684	517.0151	684	529.0158	684	603.020569	684	531.0159	684	522.0154	684	616.0214	684	566.0181	684	524.0155
618	19130.6641	618	41213.82	618	47866.22	618	1244.0874	618	136141.859	618	14150.3066	618	2337.30859	686	504.014343	686	583.0192	686	593.0199	686	531.0159	686	545.0168	686	597.020142	686	524.0155	686	517.0151
619	18509.3438	619	40055.5156	619	46678.8945	619	1222.08435	619	131739.734	619	13570.3994	619	2396.32446	688	580.019	688	537.0163	688	564.017944	688	512.014832	688	541.016541	688	641.0232	688	539.0164	688	523.015442
620	18053.4023	620	38989.7656	620	45266.5742	620	1247.08789	620	128996.617	620	13173.8008	620	2344.31055	690	525.015564	690	548.016968	690	557.0175	690	563.0179	690	483.013184	690	637.022949	690	553.0173	690	544.0167
621	17577.4453	621	38067.76	621	44380.0977	621	1197.08093	621	124273.508	621	12830.2959	621	2228.28052	692	558.0176	692	592.0198	692	566.0181	692	481.013062	692	558.0176	692	628.0223	692	544.0167	692	559.017639
622	17039.3945	622	36843.59	622	42833.4922	622	1171.07751	622	120852.453	622	12393.6748	622	2293.297	694	556.017456	694	541.016541	694	576.018738	694	496.0139	694	551.017151	694	621.0218	694	551.017151	694	545.0168
623	16599.5586	623	35927.832	623	41737.27	623	1168.077	623	116899.711	623	12101.2705	623	2224.27954	696	515.015	696	571.018433	696	589.0196	696	484.013245	696	535.0162	696	602.020447	696	550.0171	696	542.0166
624	15887.252	624	34553.37	624	40548.7539	624	1236.0863	624	112974.055	624	11702.7344	624	2123.25464	698	523.015442	698	540.0165	698	577.0188	698	534.0161	698	550.0171	698	577.0188	698	474.0127	698	535.0162
625	15437.457	625	33174.1	625	39198.6875	625	1153.07507	625	109439.922	625	11363.292	625	2229.28076	700	541.016541	700	572.0185	700	513.0149	700	561.017761	700	482.013123	700	571.018433	700	543.016663	700	497.013947
626	15180.0117	626	32231.625	626	37829.7422	626	1142.07373	626	105768.555	626	11097.9561	626	2013.229																
627	14584.0107	627	31226.0273	627	36148.73	627	1138.07312	627	101562.57	627	10780.5635	627	2013.229																
628	14131.2764	628	30170.3711	628	34092.5859	628	1186.07947	628	98133.09	628	10413.124	628	2046.23657																
629	13815.7793	629	29139.9238	629	33245.3672	629	1195.08069	629	94348.16	629	10152.8223	629	1963.21777																
630	13222.874	630	27888.8984	630	32387.1914	630	1195.08069	630	91072.0156	630	9682.295	630	1898.20361																
631	12653.041	631	26585.8945	631	31241.08	631	1189.07983	631	87078.0156	631	9459.054	631	1935.21155																
632	12213.4238	632	25476.6367	632	29775.0332	632	1222.08435	632	83616.8	632	9080.657	632	1966.21838																
633	11758.8086	633	24690.4121	633	28828.9063	633	1178.07837	633	80646.35	633	8721.296	633	1948.21448																
634	11430.3789	634	23547.3	634	27753.4746	634	1291.09412	634	76803.32	634	8571.149	634	1946.214																
635	11159.0322	635	22958.7559	635	26445.4746	635	1308.09668	635	74152.8047	635	8170.771	635	1994.22473																
636	10629.3809	636	21985.2871	636	25597.9863	636	1418.11365	636	70626.08	636	7973.59131	636	2064.24072																
637	10215.8945	637	20932.7383	637	24493.8652	637	1409.11218	637	67858.51	637	7870.499	637	2032.23328																
638	10157.8271	638	20570.89	638	24047.6445	638	1586.14209	638	64380.6172	638	7479.15967	638	2127.25562																
639	9775.397	639	19693.8965	639	22711.1172	639	1720.16711	639	61733.8242	639	7296.007	639	2227.28027																
640	9194.775	640	18687.7168	640	21864.9883	640	1778.17859	640	59140.17	640	7186.91748	640	2272.29175																
641	9167.747	641	18298.9063	641	21036.9844	641	1757.17444	641	55968.6133	641	7065.82	641	2269.291																
642	8878.452	642	17355.0059	642	20145.9141	642	1872.198	642	53516.4922	642	6778.5957	642	2425.33228																
643	8449.032	643	16110.6563	643	18849.0586	643	1884.20056	643	50749.24	643	6586.45	643	2323.305																
644	8112.71729	644	15743.9961	644	18195.6934	644	1915.20728	644	48290.5156	644	6331.264	644	2271.2915																
645	7807.443	645	14990.6895	645	17396.0879	645	1929.21033	645	45556.0547	645	6003.03564	645	2310.30151																
646	7513.18848	646	14318.5771	646	16574.5117	646	1872.198	646	43142.9922	646	5732.85645	646	2140.25879																
647	7033.79443	647	13573.4043	647	15684.8916	647	1738.17065	647	41129.43	647	5574.75537	647	2132.25684																
648	6855.655	648	12826.291	648	14801.3711	648	1687.16077	648	39287.08	648	5306.591	648	2036.23425																
649	6307.247	649	12369.6406	649	14106.2363	649	1571.1394	649	37304.5156	649	4764.282	649	1906.20532																
650	6117.114	650	11567.5566	650	13458.2285	650	1444.1178	650	35064.375	650	4641.217	650	1800.18311																
651	5681.82373	651	11094.9521	651	12789.2373	651	1346.10242	651	33366.8242	651	4438.113	651	1745.17212																
652	5535.731	652	10361.0635	652	12088.252	652	1268.09082	652	31471.8965	652	4172.984	652	1594.14355																
653	5121.48145	653	9944.586	653	11528.5059	653	1236.0863	653	29594.43	653	3953.883	653	1529.13208																
654	4992.40771	654	9277.861	654	11148.0186	654	1210.08276	654	28203.8965	654	3671.76172	654	1430.1156																
655	4684.23975	655	8802.376	655	10598.3438	655	1078.06567	655	27006.166	655	3582.725	655	1376.10693																
656	4425.106	656	8281.874	656	10142.8105	656	1113.07	656	25539.8184	656	3524.702	656	1343.10193																
657	4218.005	657	7982.599	657	9675.287	657	1115.07019	657	24139.8945	657	3231.59	657	1324.099																
658	4150.973	658	7683.33447	658	8985.561	658	1044.06165	658	22971.79	658	3225.588	658	1281.09277																
659	3825.827	659	7419.109	659	8777.352	659	1061.0636	659	21682.541	659	2984.50317	659	1313.09741																
660	3826.82739	660	6948.72754	660	8445.028	660	1092.06738	660	20636.041	660	2923.483	660	1333.10046																
661	3699.77319	661	6645.49463	661	8170.771	661	1065.06409	661	19692.8945	661	2803.444	661	1244.0874																
662	3531.70459	662	6559.43	662	7765.40625	662	1035.06055	662	18667.6758	662	2758.43	662	1194.08057																
663	3492.68921	663	6068.08	663	7483.163	663	1041.06128	663	17858.0059	663	2594.38037	663	1247.08789																
664	3233.59058	664	5963.009	664	7060.816	664	1004.05695	664	16943.209	664	2521.35913	664	1218.08386																
665	3155.5625	665	5627.789	665	6651.499	665	1019.05865	665	16231.877	665	2412.32886	665	1175.078																
666	3087.53857	666	5688.828	666	6509.39355	666	985.0548	666	15417.4219	666	2425.33228	666	1141.07361																
667	3011.51245	667	5274.572	667	6282.22949	667	1001.05664	667	14629.085	667	2311.30176	667	1110.06958																
668	2835.454	668	5121.48145	668	5864.943	668	922.048035	668	14041.1328	668	2232.28149	668	1145.0741																
669	2758.43	669	4818.31152	669	5718.84766	669	911.0469	669	13488.2744	669	2128.25586	669	1042.0614																
670	2569.373	670	4644.21826	670	5563.74854	670	934.0493	670	12738.1631	670	2133.257	670	1009.05756																
671	2571.37354	671	4596.19336	671	5340.61133	671	911.0469	671	12096.2637	671	1997.22534	671	953.051331																
672	2435.335	672	4318.053	672	5095.467	672	898.0456	672	11899.9971	672	1931.21069	672	925.04834																
673	2283.29443	673	4145.971	673	4995.40967	673	860.0418	673	11341.2646	673	1770.177	673	900.0458																
674	2240.28345	674	3911.8645	674	4773.287	674	817.0377	674	10743.5186	674	1668.15723	674	900.0458																
675	2167.26538	675	3876.849	675	4574.182	675	836.0395	675	10595.34	675	1759.1748	675	904.0462																
676	2127.25562	676	3564.71777	676	4493.14063	676	792.035461	676	10027.6787	676	1579.14087	676	902.045959																
677	2068.2417	677	3608.7356	677	4327.05762	677	723.029541	677	9497.094	677	1564.13818	677	829.0388																
678	2042.2356	678	3509.6958	678	4168.982	678	751.03186	678	9163.743	678	1573.13977	678	823.038269																
679	1938.21228	679	3397.652	679	3861.84253	679	722.0295	679	8828.402	679	1447.11829	679	822.0382																
680	1900.204	680	3206.58081	680	3866.84473	680	705.0281	680	8624.201	680	1482.12415	680	805.0366																
681	1818.18677	681	3033.51978	681	3836.83154	681	725.0297	681	8174.77441	681	1393.10962	681	824.0384																
682	1766.17627	682	2990.50513	682	3595.73047	682	734.030457	682	7898.524	682	1392.1095	682	826.0386																
683	1709.165	683	2946.49048	683	3478.68359	683	750.0318	683	7568.23535	683	1380.10767	683	750.0318																
684	1736.17029	684	2900.47534	684	3466.679	684	684.0264	684	7179.91162	684	1319.09827	684	819.0379																
685	1687.16077	685	2880.46875	685	3329.62622	685	660.0246	685	6900.69	685	1271.09131	685	762.032837																
686	1596.14392	686	2736.423	686	3297.61426	686	691.027	686	6778.5957	686	1220.08411	686	774.0339																
687	1525.13147	687	2706.41382	687	3287.6106	687	657.0244	687	6390.30664	687	1189.07983	687	741.031																
688	1656.15491	688	2515.35742	688	3247.596	688	690.0269	688	6186.16162	688	1242.08716	688	769.0334																
689	1538.13367	689	2515.35742	689	3065.531	689	713.028748	689	6000.03369	689	1223.08447	689	786.0349																
690	1500.1272	690	2601.38232	690	3083.537	690	685.0265	690	5693.83154	690	1257.08923	690	759.032532																
691	1480.12378	691	2365.31616	691	2988.50464	691	694.0272	691	5663.812	691	1167.0769	691	704.028																
692	1517.13	692	2327.306	692	2792.44043	692	677.0259	692	5323.601	692	1059.06335	692	726.0298																
693	1449.11865	693	2295.29761	693	2827.45166	693	708.0283	693	5290.581	693	1137.073	693	741.031																
694	1467.12158	694	2238.283	694	2651.39722	694	710.0285	694	5022.425	694	1083.06628	694	748.0316																
695	1427.11511	695	2125.25513	695	2689.40869	695	716.029	695	4901.357	695	1091.06726	695	744.03125																
696	1377.10718	696	2090.24683	696	2494.35156	696	711.028564	696	4667.23047	696	1084.06641	696	752.032																
697	1294.0946	697	2021.23083	697	2548.367	697	682.0263	697	4490.139	697	1007.05731	697	721.029358																
698	1300.09546	698	1980.22156	698	2439.33618	698	698.0275	698	4317.05273	698	1040.06116	698	676.0258																
699	1286.09351	699	1930.21045	699	2362.31519	699	674.0257	699	4087.944	699	1032.06018	699	702.027832																
700	1234.086	700	1852.19385	700	2276.29272	700	694.0272	700	3930.8728	700	949.0509	700	709.0284																
</Group>
